Time (s),Pitch (deg),Velocity (m/s)
0.0000,-0.1516,-0.0122
0.0042,-0.3466,-0.0067
0.0083,-0.5542,-0.0031
0.0125,-0.7575,-0.0001
0.0167,-0.9589,0.0029
0.0208,-1.1579,0.0059
0.0250,-1.3546,0.0089
0.0292,-1.5490,0.0120
0.0333,-1.7412,0.0152
0.0375,-1.9319,0.0178
0.0417,-2.1215,0.0190
0.0458,-2.3081,0.0204
0.0500,-2.4922,0.0218
0.0542,-2.6737,0.0232
0.0583,-2.8527,0.0247
0.0625,-3.0291,0.0262
0.0667,-3.2031,0.0278
0.0708,-3.3746,0.0294
0.0750,-3.5436,0.0310
0.0792,-3.7103,0.0327
0.0833,-3.8745,0.0345
0.0875,-4.0364,0.0363
0.0917,-4.1959,0.0381
0.0958,-4.3532,0.0400
0.1000,-4.5082,0.0419
0.1042,-4.6627,0.0415
0.1083,-4.8134,0.0417
0.1125,-4.9612,0.0418
0.1167,-5.1061,0.0419
0.1208,-5.2479,0.0421
0.1250,-5.3867,0.0424
0.1292,-5.5224,0.0427
0.1333,-5.6551,0.0430
0.1375,-5.7847,0.0434
0.1417,-5.9112,0.0439
0.1458,-6.0347,0.0444
0.1500,-6.1551,0.0449
0.1542,-6.2724,0.0455
0.1583,-6.3866,0.0461
0.1625,-6.4978,0.0468
0.1667,-6.6059,0.0475
0.1708,-6.7110,0.0483
0.1750,-6.8130,0.0491
0.1792,-6.9121,0.0499
0.1833,-7.0084,0.0508
0.1875,-7.1018,0.0518
0.1917,-7.1949,0.0493
0.1958,-7.2808,0.0486
0.2000,-7.3606,0.0478
0.2042,-7.4343,0.0470
0.2083,-7.5020,0.0463
0.2125,-7.5635,0.0456
0.2167,-7.6190,0.0449
0.2208,-7.6686,0.0442
0.2250,-7.7128,0.0436
0.2292,-7.7518,0.0429
0.2333,-7.7860,0.0423
0.2375,-7.8158,0.0416
0.2417,-7.8417,0.0410
0.2458,-7.8638,0.0403
0.2500,-7.8826,0.0397
0.2542,-7.8984,0.0390
0.2583,-7.9112,0.0384
0.2625,-7.9215,0.0378
0.2667,-7.9293,0.0372
0.2708,-7.9349,0.0366
0.2750,-7.9383,0.0360
0.2792,-7.9399,0.0354
0.2833,-7.9396,0.0348
0.2875,-7.9376,0.0342
0.2917,-7.9341,0.0337
0.2958,-7.9292,0.0332
0.3000,-7.9229,0.0326
0.3042,-7.9154,0.0321
0.3083,-7.9068,0.0316
0.3125,-7.8971,0.0311
0.3167,-7.8865,0.0306
0.3208,-7.8750,0.0301
0.3250,-7.8627,0.0297
0.3292,-7.8497,0.0292
0.3333,-7.8361,0.0287
0.3375,-7.8219,0.0283
0.3417,-7.8072,0.0279
0.3458,-7.7920,0.0274
0.3500,-7.7764,0.0270
0.3542,-7.7604,0.0266
0.3583,-7.7442,0.0262
0.3625,-7.7277,0.0258
0.3667,-7.7111,0.0255
0.3708,-7.6942,0.0251
0.3750,-7.6772,0.0247
0.3792,-7.6602,0.0244
0.3833,-7.6431,0.0240
0.3875,-7.6259,0.0237
0.3917,-7.6088,0.0234
0.3958,-7.5917,0.0231
0.4000,-7.5747,0.0228
0.4042,-7.5578,0.0225
0.4083,-7.5409,0.0222
0.4125,-7.5243,0.0219
0.4167,-7.5077,0.0216
0.4208,-7.4914,0.0213
0.4250,-7.4752,0.0211
0.4292,-7.4592,0.0208
0.4333,-7.4434,0.0206
0.4375,-7.4279,0.0203
0.4417,-7.4126,0.0201
0.4458,-7.3976,0.0199
0.4500,-7.3828,0.0197
0.4542,-7.3684,0.0195
0.4583,-7.3542,0.0193
0.4625,-7.3403,0.0191
0.4667,-7.3267,0.0189
0.4708,-7.3134,0.0187
0.4750,-7.3004,0.0186
0.4792,-7.2877,0.0184
0.4833,-7.2754,0.0183
0.4875,-7.2634,0.0181
0.4917,-7.2518,0.0180
0.4958,-7.2405,0.0179
0.5000,-7.2295,0.0178
0.5042,-7.2189,0.0176
0.5083,-7.2086,0.0175
0.5125,-7.1987,0.0175
0.5167,-7.1892,0.0174
0.5208,-7.1800,0.0173
0.5250,-7.1712,0.0172
0.5292,-7.1628,0.0172
0.5333,-7.1547,0.0171
0.5375,-7.1470,0.0171
0.5417,-7.1397,0.0170
0.5458,-7.1328,0.0170
0.5500,-7.1262,0.0170
0.5542,-7.1201,0.0170
0.5583,-7.1143,0.0170
0.5625,-7.1089,0.0170
0.5667,-7.1039,0.0170
0.5708,-7.0993,0.0170
0.5750,-7.0951,0.0171
0.5792,-7.0913,0.0171
0.5833,-7.0879,0.0172
0.5875,-7.0848,0.0172
0.5917,-7.0822,0.0173
0.5958,-7.0800,0.0174
0.6000,-7.0782,0.0175
0.6042,-7.0768,0.0175
0.6083,-7.0759,0.0177
0.6125,-7.0753,0.0178
0.6167,-7.0752,0.0179
0.6208,-7.0755,0.0180
0.6250,-7.0762,0.0182
0.6292,-7.0773,0.0183
0.6333,-7.0789,0.0185
0.6375,-7.0809,0.0187
0.6417,-7.0833,0.0189
0.6458,-7.0862,0.0191
0.6500,-7.0896,0.0193
0.6542,-7.0934,0.0195
0.6583,-7.0976,0.0197
0.6625,-7.1023,0.0200
0.6667,-7.1075,0.0203
0.6708,-7.1131,0.0205
0.6750,-7.1192,0.0208
0.6792,-7.1258,0.0211
0.6833,-7.1328,0.0214
0.6875,-7.1404,0.0217
0.6917,-7.1484,0.0221
0.6958,-7.1570,0.0224
0.7000,-7.1660,0.0228
0.7042,-7.1756,0.0232
0.7083,-7.1857,0.0236
0.7125,-7.1963,0.0240
0.7167,-7.2074,0.0244
0.7208,-7.2190,0.0248
0.7250,-7.2312,0.0253
0.7292,-7.2440,0.0257
0.7333,-7.2573,0.0262
0.7375,-7.2711,0.0267
0.7417,-7.2856,0.0272
0.7458,-7.3006,0.0278
0.7500,-7.3162,0.0283
0.7542,-7.3323,0.0289
0.7583,-7.3509,0.0268
0.7625,-7.3648,0.0256
0.7667,-7.3740,0.0245
0.7708,-7.3788,0.0233
0.7750,-7.3794,0.0221
0.7792,-7.3760,0.0209
0.7833,-7.3689,0.0198
0.7875,-7.3581,0.0186
0.7917,-7.3440,0.0174
0.7958,-7.3265,0.0162
0.8000,-7.3059,0.0150
0.8042,-7.2823,0.0138
0.8083,-7.2558,0.0126
0.8125,-7.2266,0.0114
0.8167,-7.1947,0.0101
0.8208,-7.1605,0.0089
0.8250,-7.1238,0.0077
0.8292,-7.0849,0.0064
0.8333,-7.0424,0.0075
0.8375,-7.0045,0.0080
0.8417,-6.9716,0.0084
0.8458,-6.9430,0.0088
0.8500,-6.9183,0.0093
0.8542,-6.8974,0.0098
0.8583,-6.8799,0.0103
0.8625,-6.8657,0.0108
0.8667,-6.8546,0.0114
0.8708,-6.8462,0.0119
0.8750,-6.8406,0.0125
0.8792,-6.8374,0.0131
0.8833,-6.8367,0.0137
0.8875,-6.8381,0.0144
0.8917,-6.8417,0.0150
0.8958,-6.8472,0.0157
0.9000,-6.8547,0.0164
0.9042,-6.8639,0.0171
0.9083,-6.8765,0.0154
0.9125,-6.8854,0.0143
0.9167,-6.8901,0.0133
0.9208,-6.8908,0.0123
0.9250,-6.8877,0.0112
0.9292,-6.8809,0.0102
0.9333,-6.8708,0.0092
0.9375,-6.8574,0.0081
0.9417,-6.8409,0.0070
0.9458,-6.8215,0.0060
0.9500,-6.7993,0.0049
0.9542,-6.7744,0.0038
0.9583,-6.7454,0.0051
0.9625,-6.7207,0.0057
0.9667,-6.7004,0.0063
0.9708,-6.6839,0.0069
0.9750,-6.6711,0.0075
0.9792,-6.6617,0.0082
0.9833,-6.6555,0.0088
0.9875,-6.6523,0.0095
0.9917,-6.6518,0.0102
0.9958,-6.6540,0.0110
1.0000,-6.6586,0.0117
1.0042,-6.6655,0.0125
1.0083,-6.6762,0.0109
1.0125,-6.6837,0.0098
1.0167,-6.6871,0.0089
1.0208,-6.6867,0.0079
1.0250,-6.6826,0.0070
1.0292,-6.6751,0.0060
1.0333,-6.6644,0.0050
1.0375,-6.6506,0.0040
1.0417,-6.6338,0.0030
1.0458,-6.6127,0.0043
1.0500,-6.5953,0.0051
1.0542,-6.5821,0.0058
1.0583,-6.5725,0.0065
1.0625,-6.5664,0.0072
1.0667,-6.5635,0.0079
1.0708,-6.5635,0.0087
1.0750,-6.5664,0.0095
1.0792,-6.5735,0.0079
1.0833,-6.5777,0.0069
1.0875,-6.5780,0.0060
1.0917,-6.5748,0.0051
1.0958,-6.5681,0.0041
1.1000,-6.5582,0.0032
1.1042,-6.5448,0.0030
1.1083,-6.5295,0.0042
1.1125,-6.5179,0.0050
1.1167,-6.5100,0.0057
1.1208,-6.5056,0.0064
1.1250,-6.5044,0.0072
1.1292,-6.5062,0.0080
1.1333,-6.5124,0.0065
1.1375,-6.5158,0.0055
1.1417,-6.5155,0.0046
1.1458,-6.5117,0.0037
1.1500,-6.5046,0.0028
1.1542,-6.4944,0.0019
1.1583,-6.4795,0.0033
1.1625,-6.4682,0.0041
1.1667,-6.4606,0.0048
1.1708,-6.4566,0.0056
1.1750,-6.4559,0.0064
1.1792,-6.4582,0.0072
1.1833,-6.4650,0.0057
1.1875,-6.4690,0.0047
1.1917,-6.4694,0.0039
1.1958,-6.4662,0.0030
1.2000,-6.4598,0.0021
1.2042,-6.4503,0.0012
1.2083,-6.4362,0.0026
1.2125,-6.4255,0.0034
1.2167,-6.4187,0.0042
1.2208,-6.4155,0.0050
1.2250,-6.4156,0.0058
1.2292,-6.4192,0.0058
1.2333,-6.4248,0.0045
1.2375,-6.4274,0.0036
1.2417,-6.4264,0.0027
1.2458,-6.4220,0.0018
1.2500,-6.4145,0.0010
1.2542,-6.4023,0.0024
1.2583,-6.3934,0.0033
1.2625,-6.3884,0.0040
1.2667,-6.3868,0.0049
1.2708,-6.3887,0.0053
1.2750,-6.3941,0.0039
1.2792,-6.3967,0.0030
1.2833,-6.3959,0.0021
1.2875,-6.3917,0.0013
1.2917,-6.3839,0.0009
1.2958,-6.3731,0.0022
1.3000,-6.3656,0.0031
1.3042,-6.3619,0.0039
1.3083,-6.3617,0.0047
1.3125,-6.3653,0.0042
1.3167,-6.3697,0.0030
1.3208,-6.3709,0.0022
1.3250,-6.3688,0.0013
1.3292,-6.3632,0.0005
1.3333,-6.3532,0.0019
1.3375,-6.3463,0.0028
1.3417,-6.3432,0.0036
1.3458,-6.3435,0.0045
1.3500,-6.3484,0.0033
1.3542,-6.3516,0.0023
1.3583,-6.3515,0.0014
1.3625,-6.3480,0.0006
1.3667,-6.3404,0.0008
1.3708,-6.3317,0.0020
1.3750,-6.3266,0.0028
1.3792,-6.3250,0.0037
1.3833,-6.3270,0.0041
1.3875,-6.3327,0.0028
1.3917,-6.3356,0.0019
1.3958,-6.3351,0.0010
1.4000,-6.3313,0.0002
1.4042,-6.3233,0.0006
1.4083,-6.3149,0.0018
1.4125,-6.3101,0.0026
1.4167,-6.3089,0.0034
1.4208,-6.3114,0.0039
1.4250,-6.3173,0.0025
1.4292,-6.3205,0.0016
1.4333,-6.3203,0.0008
1.4375,-6.3168,0.0000
1.4417,-6.3092,0.0002
1.4458,-6.3005,0.0014
1.4500,-6.2954,0.0023
1.4542,-6.2940,0.0031
1.4583,-6.2961,0.0040
1.4625,-6.3029,0.0025
1.4667,-6.3071,0.0016
1.4708,-6.3079,0.0008
1.4750,-6.3053,0.0000
1.4792,-6.2994,-0.0007
1.4833,-6.2893,0.0007
1.4875,-6.2825,0.0016
1.4917,-6.2795,0.0025
1.4958,-6.2801,0.0033
1.5000,-6.2844,0.0034
1.5042,-6.2912,0.0022
1.5083,-6.2951,0.0013
1.5125,-6.2955,0.0005
1.5167,-6.2926,-0.0003
1.5208,-6.2863,-0.0008
1.5250,-6.2765,0.0006
1.5292,-6.2701,0.0015
1.5333,-6.2675,0.0023
1.5375,-6.2685,0.0032
1.5417,-6.2734,0.0030
1.5458,-6.2798,0.0018
1.5500,-6.2832,0.0010
1.5542,-6.2833,0.0002
1.5583,-6.2800,-0.0006
1.5625,-6.2728,-0.0005
1.5667,-6.2644,0.0008
1.5708,-6.2596,0.0017
1.5750,-6.2586,0.0025
1.5792,-6.2611,0.0034
1.5833,-6.2683,0.0020
1.5875,-6.2731,0.0011
1.5917,-6.2744,0.0003
1.5958,-6.2723,-0.0005
1.6000,-6.2669,-0.0012
1.6042,-6.2575,0.0003
1.6083,-6.2515,0.0012
1.6125,-6.2494,0.0021
1.6167,-6.2508,0.0029
1.6208,-6.2564,0.0024
1.6250,-6.2625,0.0013
1.6292,-6.2654,0.0005
1.6333,-6.2651,-0.0003
1.6375,-6.2614,-0.0011
1.6417,-6.2532,0.0002
1.6458,-6.2476,0.0012
1.6500,-6.2459,0.0021
1.6542,-6.2479,0.0026
1.6583,-6.2536,0.0012
1.6625,-6.2567,0.0004
1.6667,-6.2564,-0.0004
1.6708,-6.2526,-0.0009
1.6750,-6.2453,0.0005
1.6792,-6.2411,0.0015
1.6833,-6.2407,0.0023
1.6875,-6.2445,0.0019
1.6917,-6.2491,0.0007
1.6958,-6.2507,-0.0001
1.7000,-6.2490,-0.0009
1.7042,-6.2429,0.0001
1.7083,-6.2381,0.0012
1.7125,-6.2368,0.0020
1.7167,-6.2396,0.0019
1.7208,-6.2442,0.0007
1.7250,-6.2461,-0.0001
1.7292,-6.2446,-0.0009
1.7333,-6.2387,0.0001
1.7375,-6.2342,0.0012
1.7417,-6.2333,0.0021
1.7458,-6.2367,0.0014
1.7500,-6.2403,0.0003
1.7542,-6.2409,-0.0005
1.7583,-6.2376,-0.0006
1.7625,-6.2320,0.0007
1.7667,-6.2297,0.0017
1.7708,-6.2312,0.0022
1.7750,-6.2367,0.0009
1.7792,-6.2397,0.0000
1.7833,-6.2394,-0.0008
1.7875,-6.2356,-0.0013
1.7917,-6.2282,0.0002
1.7958,-6.2240,0.0011
1.8000,-6.2235,0.0020
1.8042,-6.2268,0.0026
1.8083,-6.2341,0.0012
1.8125,-6.2387,0.0004
1.8167,-6.2400,-0.0004
1.8208,-6.2380,-0.0012
1.8250,-6.2326,-0.0018
1.8292,-6.2233,-0.0003
1.8333,-6.2174,0.0006
1.8375,-6.2155,0.0015
1.8417,-6.2171,0.0023
1.8458,-6.2223,0.0029
1.8500,-6.2311,0.0015
1.8542,-6.2372,0.0007
1.8583,-6.2398,-0.0001
1.8625,-6.2390,-0.0009
1.8667,-6.2351,-0.0017
1.8708,-6.2277,-0.0020
1.8750,-6.2176,-0.0006
1.8792,-6.2112,0.0003
1.8833,-6.2087,0.0012
1.8875,-6.2099,0.0021
1.8917,-6.2145,0.0030
1.8958,-6.2239,0.0016
1.9000,-6.2307,0.0007
1.9042,-6.2340,-0.0000
1.9083,-6.2339,-0.0008
1.9125,-6.2306,-0.0016
1.9167,-6.2237,-0.0018
1.9208,-6.2145,-0.0004
1.9250,-6.2090,0.0005
1.9292,-6.2075,0.0014
1.9333,-6.2095,0.0023
1.9375,-6.2151,0.0027
1.9417,-6.2240,0.0014
1.9458,-6.2303,0.0006
1.9500,-6.2330,-0.0002
1.9542,-6.2324,-0.0010
1.9583,-6.2285,-0.0018
1.9625,-6.2213,-0.0021
1.9667,-6.2112,-0.0007
1.9708,-6.2047,0.0002
1.9750,-6.2022,0.0011
1.9792,-6.2034,0.0020
1.9833,-6.2080,0.0029
1.9875,-6.2173,0.0015
1.9917,-6.2242,0.0006
1.9958,-6.2275,-0.0002
2.0000,-6.2274,-0.0009
2.0042,-6.2241,-0.0017
2.0083,-6.2167,-0.0014
2.0125,-6.2087,-0.0002
2.0167,-6.2045,0.0007
2.0208,-6.2040,0.0016
2.0250,-6.2071,0.0025
2.0292,-6.2151,0.0011
2.0333,-6.2206,0.0002
2.0375,-6.2227,-0.0005
2.0417,-6.2214,-0.0013
2.0458,-6.2166,-0.0016
2.0500,-6.2088,-0.0002
2.0542,-6.2045,0.0007
2.0583,-6.2040,0.0016
2.0625,-6.2070,0.0025
2.0667,-6.2149,0.0011
2.0708,-6.2203,0.0002
2.0750,-6.2223,-0.0006
2.0792,-6.2210,-0.0013
2.0833,-6.2163,-0.0020
2.0875,-6.2077,-0.0005
2.0917,-6.2023,0.0004
2.0958,-6.2009,0.0013
2.1000,-6.2031,0.0022
2.1042,-6.2097,0.0016
2.1083,-6.2164,0.0005
2.1125,-6.2199,-0.0003
2.1167,-6.2201,-0.0010
2.1208,-6.2170,-0.0018
2.1250,-6.2096,-0.0009
2.1292,-6.2034,0.0002
2.1333,-6.2010,0.0011
2.1375,-6.2023,0.0020
2.1417,-6.2079,0.0015
2.1458,-6.2141,0.0004
2.1500,-6.2172,-0.0004
2.1542,-6.2170,-0.0012
2.1583,-6.2133,-0.0017
2.1625,-6.2058,-0.0003
2.1667,-6.2015,0.0007
2.1708,-6.2011,0.0015
2.1750,-6.2045,0.0018
2.1792,-6.2111,0.0006
2.1833,-6.2149,-0.0003
2.1875,-6.2154,-0.0010
2.1917,-6.2125,-0.0017
2.1958,-6.2056,-0.0003
2.2000,-6.2015,0.0007
2.2042,-6.2012,0.0016
2.2083,-6.2049,0.0013
2.2125,-6.2102,0.0002
2.2167,-6.2126,-0.0006
2.2208,-6.2116,-0.0014
2.2250,-6.2066,-0.0007
2.2292,-6.2018,0.0004
2.2333,-6.2006,0.0013
2.2375,-6.2033,0.0015
2.2417,-6.2086,0.0004
2.2458,-6.2118,-0.0005
2.2500,-6.2117,-0.0012
2.2542,-6.2077,-0.0011
2.2583,-6.2023,0.0002
2.2625,-6.2003,0.0012
2.2667,-6.2023,0.0015
2.2708,-6.2073,0.0006
2.2750,-6.2109,-0.0003
2.2792,-6.2113,-0.0011
2.2833,-6.2079,-0.0010
2.2875,-6.2029,0.0002
2.2917,-6.2008,0.0011
2.2958,-6.2027,0.0011
2.3000,-6.2066,0.0004
2.3042,-6.2093,-0.0006
2.3083,-6.2086,-0.0010
2.3125,-6.2050,-0.0007
2.3167,-6.2008,0.0005
2.3208,-6.2000,0.0014
2.3250,-6.2036,0.0009
2.3292,-6.2077,-0.0001
2.3333,-6.2092,-0.0009
2.3375,-6.2069,-0.0009
2.3417,-6.2030,-0.0002
2.3458,-6.2002,0.0009
2.3500,-6.2012,0.0011
2.3542,-6.2048,0.0006
2.3583,-6.2079,-0.0004
2.3625,-6.2078,-0.0009
2.3667,-6.2050,-0.0008
2.3708,-6.2008,0.0003
2.3750,-6.1997,0.0012
2.3792,-6.2026,0.0007
2.3833,-6.2057,0.0002
2.3875,-6.2074,-0.0006
2.3917,-6.2062,-0.0007
2.3958,-6.2036,-0.0006
2.4000,-6.2002,0.0005
2.4042,-6.1999,0.0011
2.4083,-6.2028,0.0007
2.4125,-6.2059,-0.0000
2.4167,-6.2071,-0.0007
2.4208,-6.2054,-0.0006
2.4250,-6.2026,-0.0004
2.4292,-6.1996,0.0006
2.4333,-6.2000,0.0010
2.4375,-6.2029,0.0007
2.4417,-6.2060,-0.0002
2.4458,-6.2065,-0.0008
2.4500,-6.2043,-0.0007
2.4542,-6.2010,-0.0001
2.4583,-6.1990,0.0009
2.4625,-6.2005,0.0008
2.4667,-6.2034,0.0004
2.4708,-6.2058,-0.0004
2.4750,-6.2057,-0.0007
2.4792,-6.2034,-0.0007
2.4833,-6.2000,0.0002
2.4875,-6.1987,0.0011
2.4917,-6.2011,0.0007
2.4958,-6.2039,0.0001
2.5000,-6.2055,-0.0006
2.5042,-6.2044,-0.0006
2.5083,-6.2018,-0.0004
2.5125,-6.1991,0.0007
2.5167,-6.1995,0.0010
2.5208,-6.2025,0.0004
2.5250,-6.2051,-0.0004
2.5292,-6.2050,-0.0008
2.5333,-6.2024,-0.0007
2.5375,-6.1989,0.0004
2.5417,-6.1983,0.0011
2.5458,-6.2013,0.0007
2.5500,-6.2046,-0.0002
2.5542,-6.2054,-0.0008
2.5583,-6.2032,-0.0007
2.5625,-6.1998,-0.0000
2.5667,-6.1980,0.0009
2.5708,-6.1997,0.0008
2.5750,-6.2027,0.0002
2.5792,-6.2047,-0.0005
2.5833,-6.2040,-0.0007
2.5875,-6.2014,-0.0006
2.5917,-6.1981,0.0006
2.5958,-6.1983,0.0010
2.6000,-6.2013,0.0006
2.6042,-6.2043,-0.0003
2.6083,-6.2046,-0.0009
2.6125,-6.2022,-0.0008
2.6167,-6.1985,0.0004
2.6208,-6.1977,0.0012
2.6250,-6.2009,0.0007
2.6292,-6.2044,-0.0002
2.6333,-6.2052,-0.0009
2.6375,-6.2028,-0.0008
2.6417,-6.1991,0.0000
2.6458,-6.2065,0.0046
2.6500,-6.2149,-0.0052
2.6542,-6.1721,0.0128
2.6583,-6.1617,0.0004
2.6625,-6.1589,0.0048
2.6667,-6.1672,-0.0036
2.6708,-6.1754,-0.0011
2.6750,-6.1884,-0.0072
2.6792,-6.1729,0.0058
2.6833,-6.1775,-0.0055
2.6875,-6.1668,0.0051
2.6917,-6.1745,-0.0061
2.6958,-6.1627,0.0058
2.7000,-6.1715,-0.0059
2.7042,-6.1627,0.0043
2.7083,-6.1720,-0.0064
2.7125,-6.1582,0.0075
2.7167,-6.1691,-0.0053
2.7208,-6.1656,0.0013
2.7250,-6.1717,-0.0047
2.7292,-6.1473,0.0136
2.7333,-6.1549,-0.0022
2.7375,-6.1524,0.0040
2.7417,-6.1621,-0.0047
2.7458,-6.1611,-0.0021
2.7500,-6.0510,0.1800
2.7542,-5.9677,0.1175
2.7583,-5.8839,0.1208
2.7625,-5.8428,0.1072
2.7667,-5.8010,0.0975
2.7708,-5.7581,0.0924
2.7750,-5.7160,0.0862
2.7792,-5.6755,0.0807
2.7833,-5.6742,0.0740
2.7875,-5.6703,0.0663
2.7917,-5.6630,0.0635
2.7958,-5.6550,0.0587
2.8000,-5.6471,0.0547
2.8042,-5.6405,0.0504
2.8083,-5.6360,0.0463
2.8125,-5.6342,0.0421
2.8167,-5.6716,0.0362
2.8208,-5.7066,0.0304
2.8250,-5.7378,0.0285
2.8292,-5.7683,0.0245
2.8333,-5.7985,0.0215
2.8375,-5.8297,0.0180
2.8417,-5.8623,0.0147
2.8458,-5.9317,0.0087
2.8500,-5.9979,0.0038
2.8542,-6.0378,0.0204
2.8583,-6.0786,0.0201
2.8625,-6.1185,0.0181
2.8667,-6.1559,0.0173
2.8708,-6.1908,0.0157
2.8750,-6.2225,0.0145
2.8792,-6.2913,0.0070
2.8833,-6.3568,0.0032
2.8875,-6.4136,0.0035
2.8917,-6.4539,0.0062
2.8958,-6.5300,-0.0022
2.9000,-6.5996,-0.0046
2.9042,-6.6520,-0.0015
2.9083,-6.6905,-0.0008
2.9125,-6.7074,0.0466
2.9167,-6.7523,0.0027
2.9208,-6.8089,0.0144
2.9250,-6.8704,-0.0061
2.9292,-6.9137,0.0016
2.9333,-6.9566,-0.0097
2.9375,-7.0210,-0.0082
2.9417,-7.0768,-0.0155
2.9458,-7.1085,-0.0078
2.9500,-7.1356,-0.0154
2.9542,-7.1434,-0.0096
2.9583,-7.1510,-0.0104
2.9625,-7.1550,-0.0099
2.9667,-7.1572,-0.0097
2.9708,-7.1582,-0.0095
2.9750,-7.1588,-0.0093
2.9792,-7.1595,-0.0091
2.9833,-7.1609,-0.0089
2.9875,-7.1633,-0.0088
2.9917,-7.1671,-0.0086
2.9958,-7.0729,-0.0167
3.0000,-6.9455,-0.0198
3.0042,-6.8162,-0.0214
3.0083,-6.6881,-0.0233
3.0125,-6.5608,-0.0252
3.0167,-6.4342,-0.0272
3.0208,-6.3065,-0.0276
3.0250,-6.1806,-0.0282
3.0292,-6.0563,-0.0287
3.0333,-5.9338,-0.0293
3.0375,-5.8130,-0.0299
3.0417,-5.6939,-0.0306
3.0458,-5.6127,-0.0252
3.0500,-5.5520,-0.0246
3.0542,-5.4984,-0.0235
3.0583,-5.4509,-0.0223
3.0625,-5.4096,-0.0211
3.0667,-5.3744,-0.0199
3.0708,-5.3521,-0.0205
3.0750,-5.3330,-0.0213
3.0792,-5.3129,-0.0205
3.0833,-5.2963,-0.0200
3.0875,-5.2833,-0.0195
3.0917,-5.2737,-0.0191
3.0958,-5.2672,-0.0186
3.1000,-5.2636,-0.0181
3.1042,-5.2627,-0.0176
3.1083,-5.2642,-0.0172
3.1125,-5.2679,-0.0167
3.1167,-5.2737,-0.0162
3.1208,-5.2814,-0.0157
3.1250,-5.2908,-0.0152
3.1292,-5.3017,-0.0147
3.1333,-5.3141,-0.0141
3.1375,-5.3277,-0.0136
3.1417,-5.3426,-0.0131
3.1458,-5.3585,-0.0126
3.1500,-5.3754,-0.0121
3.1542,-5.3931,-0.0115
3.1583,-5.4117,-0.0110
3.1625,-5.4310,-0.0105
3.1667,-5.4510,-0.0099
3.1708,-5.4716,-0.0094
3.1750,-5.4927,-0.0089
3.1792,-5.5143,-0.0083
3.1833,-5.5364,-0.0078
3.1875,-5.5589,-0.0072
3.1917,-5.5817,-0.0067
3.1958,-5.6049,-0.0062
3.2000,-5.6284,-0.0056
3.2042,-5.6522,-0.0050
3.2083,-5.6763,-0.0045
3.2125,-5.7007,-0.0039
3.2167,-5.7253,-0.0034
3.2208,-5.7500,-0.0028
3.2250,-5.7750,-0.0022
3.2292,-5.8002,-0.0017
3.2333,-5.8255,-0.0011
3.2375,-5.8511,-0.0005
3.2417,-5.8768,0.0001
3.2458,-5.9027,0.0007
3.2500,-5.9288,0.0013
3.2542,-5.9551,0.0019
3.2583,-5.9815,0.0025
3.2625,-6.0081,0.0031
3.2667,-6.0349,0.0037
3.2708,-6.0618,0.0043
3.2750,-6.0890,0.0050
3.2792,-6.1163,0.0056
3.2833,-6.1438,0.0063
3.2875,-6.1715,0.0069
3.2917,-6.1995,0.0076
3.2958,-6.2276,0.0083
3.3000,-6.2560,0.0089
3.3042,-6.2846,0.0096
3.3083,-6.3134,0.0103
3.3125,-6.3425,0.0110
3.3167,-6.3718,0.0118
3.3208,-6.4014,0.0125
3.3250,-6.4313,0.0132
3.3292,-6.4615,0.0140
3.3333,-6.4919,0.0148
3.3375,-6.5227,0.0155
3.3417,-6.5538,0.0163
3.3458,-6.5852,0.0171
3.3500,-6.6170,0.0180
3.3542,-6.6491,0.0188
3.3583,-6.6815,0.0197
3.3625,-6.7160,0.0179
3.3667,-6.7460,0.0169
3.3708,-6.7708,0.0161
3.3750,-6.7905,0.0152
3.3792,-6.8055,0.0143
3.3833,-6.8162,0.0134
3.3875,-6.8229,0.0125
3.3917,-6.8256,0.0116
3.3958,-6.8248,0.0107
3.4000,-6.8206,0.0098
3.4042,-6.8131,0.0088
3.4083,-6.8026,0.0079
3.4125,-6.7892,0.0069
3.4167,-6.7729,0.0059
3.4208,-6.7541,0.0049
3.4250,-6.7328,0.0040
3.4292,-6.6944,0.0209
3.4333,-6.6879,0.0064
3.4375,-6.6768,0.0108
3.4417,-6.6771,0.0037
3.4458,-6.6682,0.0046
3.4500,-6.6620,0.0010
3.4542,-6.6221,0.0172
3.4583,-6.5472,0.1850
3.4625,-6.5070,0.1385
3.4667,-6.4653,0.1334
3.4708,-6.4269,0.1234
3.4750,-6.3911,0.1156
3.4792,-6.3584,0.1082
3.4833,-6.3291,0.1014
3.4875,-6.3032,0.0952
3.4917,-6.3244,0.0869
3.4958,-6.3425,0.0798
3.5000,-6.4000,0.0737
3.5042,-6.4480,0.0682
3.5083,-6.4870,0.0649
3.5125,-6.5644,0.0585
3.5167,-6.6921,0.0878
3.5208,-6.8094,0.0659
3.5250,-6.9500,0.0591
3.5292,-7.0675,0.0520
3.5333,-7.2121,0.0433
3.5375,-7.3330,0.0381
3.5417,-7.4809,0.0308
3.5458,-7.6527,0.0229
3.5500,-7.7962,0.0193
3.5542,-7.9150,0.0175
3.5583,-8.0618,0.0119
3.5625,-8.2504,0.0463
3.5667,-8.4780,0.0107
3.5708,-8.6613,0.0112
3.5750,-8.8146,0.0053
3.5792,-8.9876,0.0005
3.5833,-9.1837,-0.0105
3.5875,-9.4074,0.0322
3.5917,-9.2706,0.1225
3.5958,-9.0629,0.1301
3.6000,-8.8816,0.1107
3.6042,-8.8105,0.1703
3.6083,-8.7761,0.1452
3.6125,-8.7399,0.1471
3.6167,-8.7086,0.1418
3.6208,-8.7155,0.1274
3.6250,-8.7524,0.1161
3.6292,-8.7641,0.1130
3.6333,-8.7747,0.1257
3.6375,-8.7872,0.1188
3.6417,-8.7951,0.1197
3.6458,-8.8485,0.1054
3.6500,-8.8827,0.1017
3.6542,-8.9034,0.1086
3.6583,-8.9748,0.1661
3.6625,-9.0559,0.1257
3.6667,-9.1301,0.1325
3.6708,-9.2137,0.1347
3.6750,-9.3032,0.1373
3.6792,-9.3977,0.1401
3.6833,-9.4962,0.1429
3.6875,-9.5981,0.1458
3.6917,-9.7113,0.1494
3.6958,-9.8287,0.1507
3.7000,-9.9481,0.1524
3.7042,-10.0691,0.1541
3.7083,-10.1912,0.1559
3.7125,-10.3143,0.1578
3.7167,-10.4384,0.1597
3.7208,-10.5634,0.1617
3.7250,-10.6890,0.1636
3.7292,-10.8148,0.1656
3.7333,-10.9408,0.1677
